Frequency (Hz)	Voltage (mV)
62500	45.28
60500	42.15
58500	40.86
56500	38.26
54500	37.05
52500	35.55
50500	33.71
48500	32.55
46500	30.74
44500	30.32
42500	27.81
40500	27.21
38500	25.36
36500	24.66
34500	22.94
32500	22.28
30500	20.64
28500	19.96
26500	18.45
24500	17.87
22500	16.19
20500	15.36
18500	14.09
16500	13.24
14500	11.79
12500	10.71
10500	9.21
8500	7.93
6500	6.35

