Frequency (Hz)	Voltage (mV)
62500	79.47
60500	75.63
58500	71.96
56500	68.39
54500	65.51
52500	62.41
50500	59.44
48500	56.76
46500	53.85
44500	51.21
42500	48.79
40500	46.62
38500	44.17
36500	42.21
34500	39.74
32500	37.72
30500	35.52
28500	33.64
26500	31.72
24500	29.99
22500	28.05
20500	26.2
18500	24.33
16500	22.23
14500	20.43
12500	18.54
10500	16.26
8500	14.24
6500	12.04
